File: 1st-Semester-Fall-2021/FEC1/LDPE Tensile Strength Tests/Team 3 LDPE 50 1.csv
Cycle,Test Point,Time (ms),Distance (mm),Up (N),Down (N),Force Data (N),Date / Time
1,1,0,0.000,,,0.000,1980/01/25 05:51:07.000
1,21,390,-0.310,0.300,,-0.300,1980/01/25 05:51:07.390
1,41,703,-0.570,0.700,,-0.700,1980/01/25 05:51:07.703
1,61,1046,-0.870,1.200,,-1.200,1980/01/25 05:51:08.046
1,81,1359,-1.120,1.600,,-1.600,1980/01/25 05:51:08.359
1,101,1703,-1.400,1.900,,-1.900,1980/01/25 05:51:08.703
1,121,2031,-1.680,2.200,,-2.200,1980/01/25 05:51:09.031
1,141,2359,-1.950,2.500,,-2.500,1980/01/25 05:51:09.359
1,161,2750,-2.260,2.700,,-2.700,1980/01/25 05:51:09.750
1,181,3078,-2.540,2.900,,-2.900,1980/01/25 05:51:10.078
1,201,3406,-2.820,3.100,,-3.100,1980/01/25 05:51:10.406
1,221,3718,-3.080,3.200,,-3.200,1980/01/25 05:51:10.718
1,241,4062,-3.360,3.300,,-3.300,1980/01/25 05:51:11.062
1,261,4375,-3.620,3.500,,-3.500,1980/01/25 05:51:11.375
1,281,4718,-3.910,3.600,,-3.600,1980/01/25 05:51:11.718
1,301,5046,-4.190,3.600,,-3.600,1980/01/25 05:51:12.046
1,321,5375,-4.460,3.700,,-3.700,1980/01/25 05:51:12.375
1,341,5703,-4.720,3.700,,-3.700,1980/01/25 05:51:12.703
1,361,6093,-5.060,3.800,,-3.800,1980/01/25 05:51:13.093
1,381,6437,-5.340,3.800,,-3.800,1980/01/25 05:51:13.437
1,401,6750,-5.600,3.900,,-3.900,1980/01/25 05:51:13.750
1,421,7062,-5.860,3.900,,-3.900,1980/01/25 05:51:14.062
1,441,7390,-6.130,3.900,,-3.900,1980/01/25 05:51:14.390
1,461,7718,-6.400,3.900,,-3.900,1980/01/25 05:51:14.718
1,481,8062,-6.690,3.900,,-3.900,1980/01/25 05:51:15.062
1,501,8421,-6.990,3.900,,-3.900,1980/01/25 05:51:15.421
1,521,8828,-7.330,3.900,,-3.900,1980/01/25 05:51:15.828
1,541,9156,-7.600,3.900,,-3.900,1980/01/25 05:51:16.156
1,561,9531,-7.920,3.900,,-3.900,1980/01/25 05:51:16.531
1,581,9875,-8.200,3.900,,-3.900,1980/01/25 05:51:16.875
1,601,10187,-8.460,3.900,,-3.900,1980/01/25 05:51:17.187
1,621,10562,-8.780,3.800,,-3.800,1980/01/25 05:51:17.562
1,641,10906,-9.070,3.800,,-3.800,1980/01/25 05:51:17.906
1,661,11234,-9.330,3.800,,-3.800,1980/01/25 05:51:18.234
1,681,11562,-9.610,3.800,,-3.800,1980/01/25 05:51:18.562
1,701,11906,-9.870,3.800,,-3.800,1980/01/25 05:51:18.906
1,721,12250,-10.180,3.700,,-3.700,1980/01/25 05:51:19.250
1,741,12578,-10.450,3.700,,-3.700,1980/01/25 05:51:19.578
1,761,12984,-10.780,3.700,,-3.700,1980/01/25 05:51:19.984
1,781,13312,-11.060,3.700,,-3.700,1980/01/25 05:51:20.312
1,801,13656,-11.340,3.600,,-3.600,1980/01/25 05:51:20.656
1,821,14015,-11.630,3.700,,-3.700,1980/01/25 05:51:21.015
1,841,14328,-11.910,3.600,,-3.600,1980/01/25 05:51:21.328
1,861,14656,-12.180,3.600,,-3.600,1980/01/25 05:51:21.656
1,881,14984,-12.450,3.600,,-3.600,1980/01/25 05:51:21.984
1,901,15312,-12.730,3.600,,-3.600,1980/01/25 05:51:22.312
1,921,15687,-13.040,3.600,,-3.600,1980/01/25 05:51:22.687
1,941,16000,-13.290,3.600,,-3.600,1980/01/25 05:51:23.000
1,961,16390,-13.620,3.600,,-3.600,1980/01/25 05:51:23.390
1,981,16703,-13.880,3.600,,-3.600,1980/01/25 05:51:23.703
1,1001,17031,-14.150,3.600,,-3.600,1980/01/25 05:51:24.031
1,1021,17359,-14.430,3.600,,-3.600,1980/01/25 05:51:24.359
1,1041,17687,-14.690,3.600,,-3.600,1980/01/25 05:51:24.687
1,1061,18078,-15.010,3.600,,-3.600,1980/01/25 05:51:25.078
1,1081,18406,-15.300,3.600,,-3.600,1980/01/25 05:51:25.406
1,1101,18718,-15.560,3.500,,-3.500,1980/01/25 05:51:25.718
1,1121,19046,-15.830,3.500,,-3.500,1980/01/25 05:51:26.046
1,1141,19390,-16.110,3.500,,-3.500,1980/01/25 05:51:26.390
1,1161,19781,-16.440,3.500,,-3.500,1980/01/25 05:51:26.781
1,1181,20109,-16.720,3.500,,-3.500,1980/01/25 05:51:27.109
1,1201,20453,-17.000,3.500,,-3.500,1980/01/25 05:51:27.453
1,1221,20796,-17.290,3.500,,-3.500,1980/01/25 05:51:27.796
1,1241,21171,-17.600,3.500,,-3.500,1980/01/25 05:51:28.171
1,1261,21546,-17.910,3.500,,-3.500,1980/01/25 05:51:28.546
1,1281,21921,-18.200,3.500,,-3.500,1980/01/25 05:51:28.921
1,1301,22234,-18.480,3.500,,-3.500,1980/01/25 05:51:29.234
1,1321,22593,-18.790,3.500,,-3.500,1980/01/25 05:51:29.593
1,1341,22953,-19.070,3.500,,-3.500,1980/01/25 05:51:29.953
1,1361,23390,-19.450,3.400,,-3.400,1980/01/25 05:51:30.390
1,1381,23718,-19.720,3.400,,-3.400,1980/01/25 05:51:30.718
1,1401,24078,-20.020,3.400,,-3.400,1980/01/25 05:51:31.078
1,1421,24406,-20.290,3.400,,-3.400,1980/01/25 05:51:31.406
1,1441,24750,-20.570,3.400,,-3.400,1980/01/25 05:51:31.750
1,1461,25125,-20.880,3.400,,-3.400,1980/01/25 05:51:32.125
1,1481,25437,-21.140,3.300,,-3.300,1980/01/25 05:51:32.437
1,1501,25765,-21.420,3.300,,-3.300,1980/01/25 05:51:32.765
1,1521,26078,-21.670,3.300,,-3.300,1980/01/25 05:51:33.078
1,1541,26421,-21.960,3.300,,-3.300,1980/01/25 05:51:33.421
1,1561,26843,-22.300,3.200,,-3.200,1980/01/25 05:51:33.843
1,1581,27171,-22.600,3.200,,-3.200,1980/01/25 05:51:34.171
1,1601,27484,-22.850,3.200,,-3.200,1980/01/25 05:51:34.484
1,1621,27812,-23.120,3.200,,-3.200,1980/01/25 05:51:34.812
1,1641,28140,-23.400,3.100,,-3.100,1980/01/25 05:51:35.140
1,1661,28453,-23.650,3.100,,-3.100,1980/01/25 05:51:35.453
1,1681,28781,-23.930,3.100,,-3.100,1980/01/25 05:51:35.781
1,1701,29109,-24.200,3.100,,-3.100,1980/01/25 05:51:36.109
1,1721,29437,-24.470,3.100,,-3.100,1980/01/25 05:51:36.437
1,1741,29750,-24.730,3.100,,-3.100,1980/01/25 05:51:36.750
1,1761,30171,-25.080,3.200,,-3.200,1980/01/25 05:51:37.171
1,1781,30515,-25.370,3.200,,-3.200,1980/01/25 05:51:37.515
1,1801,30843,-25.620,3.200,,-3.200,1980/01/25 05:51:37.843
1,1821,31187,-25.920,3.200,,-3.200,1980/01/25 05:51:38.187
1,1841,31515,-26.190,3.200,,-3.200,1980/01/25 05:51:38.515
1,1861,31843,-26.470,3.200,,-3.200,1980/01/25 05:51:38.843
1,1881,32171,-26.740,3.200,,-3.200,1980/01/25 05:51:39.171
1,1901,32484,-27.000,3.200,,-3.200,1980/01/25 05:51:39.484
1,1921,32812,-27.280,3.200,,-3.200,1980/01/25 05:51:39.812
1,1941,33156,-27.570,3.200,,-3.200,1980/01/25 05:51:40.156
1,1961,33578,-27.920,3.200,,-3.200,1980/01/25 05:51:40.578
1,1981,33890,-28.180,3.200,,-3.200,1980/01/25 05:51:40.890
1,2001,34218,-28.450,3.200,,-3.200,1980/01/25 05:51:41.218
1,2021,34578,-28.750,3.200,,-3.200,1980/01/25 05:51:41.578
1,2041,34906,-29.020,3.200,,-3.200,1980/01/25 05:51:41.906
1,2061,35234,-29.290,3.200,,-3.200,1980/01/25 05:51:42.234
1,2081,35593,-29.590,3.300,,-3.300,1980/01/25 05:51:42.593
1,2101,35906,-29.860,3.300,,-3.300,1980/01/25 05:51:42.906
1,2121,36234,-30.120,3.300,,-3.300,1980/01/25 05:51:43.234
1,2141,36546,-30.380,3.200,,-3.200,1980/01/25 05:51:43.546
1,2161,36984,-30.750,3.200,,-3.200,1980/01/25 05:51:43.984
1,2181,37312,-31.020,3.200,,-3.200,1980/01/25 05:51:44.312
1,2201,37656,-31.310,3.300,,-3.300,1980/01/25 05:51:44.656
1,2221,38015,-31.600,3.200,,-3.200,1980/01/25 05:51:45.015
1,2241,38328,-31.860,3.200,,-3.200,1980/01/25 05:51:45.328
1,2261,38671,-32.150,3.200,,-3.200,1980/01/25 05:51:45.671
1,2281,38984,-32.410,3.200,,-3.200,1980/01/25 05:51:45.984
1,2301,39312,-32.680,3.200,,-3.200,1980/01/25 05:51:46.312
1,2321,39625,-32.940,3.200,,-3.200,1980/01/25 05:51:46.625
1,2341,39953,-33.220,3.200,,-3.200,1980/01/25 05:51:46.953
1,2361,40390,-33.580,3.200,,-3.200,1980/01/25 05:51:47.390
1,2381,40734,-33.870,3.200,,-3.200,1980/01/25 05:51:47.734
1,2401,41078,-34.150,3.100,,-3.100,1980/01/25 05:51:48.078
1,2421,41421,-34.440,3.100,,-3.100,1980/01/25 05:51:48.421
1,2441,41765,-34.710,3.000,,-3.000,1980/01/25 05:51:48.765
1,2461,42093,-35.000,3.000,,-3.000,1980/01/25 05:51:49.093
1,2481,42421,-35.250,2.900,,-2.900,1980/01/25 05:51:49.421
1,2501,42765,-35.550,2.900,,-2.900,1980/01/25 05:51:49.765
1,2521,43093,-35.830,2.900,,-2.900,1980/01/25 05:51:50.093
1,2541,43421,-36.100,2.800,,-2.800,1980/01/25 05:51:50.421
1,2561,43843,-36.450,2.800,,-2.800,1980/01/25 05:51:50.843
1,2581,44171,-36.720,2.700,,-2.700,1980/01/25 05:51:51.171
1,2601,44515,-37.000,2.700,,-2.700,1980/01/25 05:51:51.515
1,2621,44843,-37.290,2.700,,-2.700,1980/01/25 05:51:51.843
1,2641,45218,-37.590,2.600,,-2.600,1980/01/25 05:51:52.218
1,2661,45562,-37.880,2.600,,-2.600,1980/01/25 05:51:52.562
1,2681,45890,-38.140,2.600,,-2.600,1980/01/25 05:51:52.890
1,2701,46234,-38.450,2.600,,-2.600,1980/01/25 05:51:53.234
1,2721,46593,-38.730,2.500,,-2.500,1980/01/25 05:51:53.593
1,2741,46906,-38.990,2.500,,-2.500,1980/01/25 05:51:53.906
1,2761,47390,-39.390,2.400,,-2.400,1980/01/25 05:51:54.390
1,2781,47703,-39.670,2.400,,-2.400,1980/01/25 05:51:54.703
1,2801,48031,-39.940,2.400,,-2.400,1980/01/25 05:51:55.031
1,2821,48359,-40.210,2.300,,-2.300,1980/01/25 05:51:55.359
1,2841,48687,-40.470,2.300,,-2.300,1980/01/25 05:51:55.687
1,2861,49031,-40.770,2.200,,-2.200,1980/01/25 05:51:56.031
1,2881,49343,-41.020,2.200,,-2.200,1980/01/25 05:51:56.343
1,2901,49671,-41.300,2.100,,-2.100,1980/01/25 05:51:56.671
1,2921,50031,-41.590,2.100,,-2.100,1980/01/25 05:51:57.031
1,2941,50343,-41.860,2.100,,-2.100,1980/01/25 05:51:57.343
1,2961,50781,-42.220,2.000,,-2.000,1980/01/25 05:51:57.781
1,2981,51125,-42.510,2.000,,-2.000,1980/01/25 05:51:58.125
1,3001,51437,-42.760,1.900,,-1.900,1980/01/25 05:51:58.437
1,3021,51765,-43.050,1.900,,-1.900,1980/01/25 05:51:58.765
1,3041,52125,-43.330,1.800,,-1.800,1980/01/25 05:51:59.125
1,3061,52484,-43.630,1.800,,-1.800,1980/01/25 05:51:59.484
1,3081,52843,-43.930,1.700,,-1.700,1980/01/25 05:51:59.843
1,3101,53203,-44.220,1.600,,-1.600,1980/01/25 05:52:00.203
1,3121,53562,-44.530,1.600,,-1.600,1980/01/25 05:52:00.562
1,3141,53890,-44.810,1.500,,-1.500,1980/01/25 05:52:00.890
1,3161,54390,-45.210,1.400,,-1.400,1980/01/25 05:52:01.390
1,3181,54703,-45.480,1.400,,-1.400,1980/01/25 05:52:01.703
1,3201,55015,-45.750,1.300,,-1.300,1980/01/25 05:52:02.015
1,3221,55328,-46.000,1.300,,-1.300,1980/01/25 05:52:02.328
1,3241,55656,-46.280,1.200,,-1.200,1980/01/25 05:52:02.656
1,3261,56000,-46.550,1.100,,-1.100,1980/01/25 05:52:03.000
1,3281,56343,-46.860,1.100,,-1.100,1980/01/25 05:52:03.343
1,3301,56671,-47.120,1.000,,-1.000,1980/01/25 05:52:03.671
1,3321,56984,-47.380,0.900,,-0.900,1980/01/25 05:52:03.984
1,3341,57312,-47.630,0.700,,-0.700,1980/01/25 05:52:04.312
1,3361,57781,-48.040,,0.200,0.200,1980/01/25 05:52:04.781
1,3381,58109,-48.280,,0.200,0.200,1980/01/25 05:52:05.109
1,3382,58125,-48.280,,0.200,0.200,1980/01/25 05:52:05.125